Frequency (Hz)	Level (dB)
21.533203	-20.729074
43.066406	-22.590254
64.599609	-26.589350
86.132813	-28.989292
107.666016	-30.839392
129.199219	-33.126957
150.732422	-34.331242
172.265625	-35.398537
193.798828	-35.881947
215.332031	-36.041180
236.865234	-36.587261
258.398438	-37.825863
279.931641	-36.844120
301.464844	-36.741447
322.998047	-33.972824
344.531250	-18.200941
366.064453	-10.761710
387.597656	-14.863279
409.130859	-32.374695
430.664063	-36.981232
452.197266	-38.523994
473.730469	-41.447083
495.263672	-41.829773
516.796875	-41.192646
538.330078	-41.112450
559.863281	-40.899803
581.396484	-40.845886
602.929688	-41.455490
624.462891	-41.139282
645.996094	-40.325447
667.529297	-39.587475
689.062500	-35.494480
710.595703	-16.017164
732.128906	-7.306358
753.662109	-9.740715
775.195313	-25.175072
796.728516	-37.851101
818.261719	-39.232605
839.794922	-39.881336
861.328125	-40.494564
882.861328	-40.205269
904.394531	-39.559551
925.927734	-40.011139
947.460938	-39.837822
968.994141	-40.080994
990.527344	-40.122101
1012.060547	-39.115417
1033.593750	-37.516342
1055.126953	-33.339039
1076.660156	-17.624571
1098.193359	-8.688798
1119.726563	-9.650937
1141.259766	-21.792109
1162.792969	-36.260891
1184.326172	-39.044514
1205.859375	-39.269867
1227.392578	-39.933155
1248.925781	-38.913834
1270.458984	-37.866825
1291.992188	-39.005589
1313.525391	-39.090813
1335.058594	-38.348610
1356.591797	-37.730534
1378.125000	-37.120247
1399.658203	-36.112671
1421.191406	-34.241657
1442.724609	-20.552261
1464.257813	-12.561008
1485.791016	-13.201586
1507.324219	-21.966816
1528.857422	-33.944382
1550.390625	-36.987762
1571.923828	-38.369843
1593.457031	-39.802654
1614.990234	-40.221107
1636.523438	-39.182655
1658.056641	-38.624832
1679.589844	-39.391014
1701.123047	-39.292976
1722.656250	-38.529751
1744.189453	-38.797390
1765.722656	-36.857769
1787.255859	-32.097969
1808.789063	-21.847063
1830.322266	-15.697248
1851.855469	-15.635712
1873.388672	-21.192646
1894.921875	-31.306591
1916.455078	-34.453960
1937.988281	-34.296864
1959.521484	-37.087559
1981.054688	-37.899849
2002.587891	-37.980354
2024.121094	-36.838055
2045.654297	-36.141895
2067.187500	-37.680752
2088.720703	-38.067478
2110.253906	-37.287209
2131.787109	-35.858597
2153.320313	-33.764435
2174.853516	-27.323652
2196.386719	-21.231045
2217.919922	-20.551537
2239.453125	-25.178968
2260.986328	-33.303242
2282.519531	-36.147144
2304.052734	-38.077621
2325.585938	-38.360332
2347.119141	-37.884739
2368.652344	-37.518330
2390.185547	-37.469238
2411.718750	-37.813255
2433.251953	-38.029701
2454.785156	-37.949581
2476.318359	-37.410480
2497.851563	-36.015007
2519.384766	-33.830212
2540.917969	-28.262756
2562.451172	-23.112003
2583.984375	-20.839933
2605.517578	-23.329718
2627.050781	-30.004206
2648.583984	-35.903313
2670.117188	-38.842926
2691.650391	-38.685249
2713.183594	-38.108379
2734.716797	-37.595287
2756.250000	-37.253967
2777.783203	-37.905827
2799.316406	-37.841278
2820.849609	-36.999584
2842.382813	-36.294750
2863.916016	-34.521893
2885.449219	-28.973524
2906.982422	-21.478561
2928.515625	-15.849856
2950.048828	-13.864213
2971.582031	-16.034721
2993.115234	-23.490227
3014.648438	-31.550385
3036.181641	-35.534721
3057.714844	-37.150867
3079.248047	-37.464569
3100.781250	-37.529583
3122.314453	-37.223198
3143.847656	-37.698406
3165.380859	-37.434780
3186.914063	-38.237785
3208.447266	-38.248299
3229.980469	-36.699932
3251.513672	-33.712818
3273.046875	-28.089317
3294.580078	-22.161226
3316.113281	-20.815285
3337.646484	-23.013609
3359.179688	-28.298544
3380.712891	-33.649178
3402.246094	-35.399605
3423.779297	-36.233986
3445.312500	-35.970631
3466.845703	-36.272255
3488.378906	-36.700855
3509.912109	-36.525841
3531.445313	-36.424347
3552.978516	-35.442165
3574.511719	-35.148228
3596.044922	-34.704292
3617.578125	-31.213610
3639.111328	-25.682236
3660.644531	-21.103647
3682.177734	-18.254417
3703.710938	-18.074221
3725.244141	-23.433907
3746.777344	-32.166599
3768.310547	-33.925358
3789.843750	-34.475193
3811.376953	-34.989925
3832.910156	-35.291153
3854.443359	-34.591408
3875.976563	-33.886715
3897.509766	-34.230488
3919.042969	-34.081970
3940.576172	-33.658501
3962.109375	-32.318092
3983.642578	-28.915394
4005.175781	-26.035021
4026.708984	-23.387951
4048.242188	-22.066139
4069.775391	-21.859966
4091.308594	-24.959126
4112.841797	-29.912050
4134.375000	-31.175486
4155.908203	-31.662811
4177.441406	-32.430496
4198.974609	-32.834110
4220.507813	-32.716003
4242.041016	-32.327515
4263.574219	-32.289284
4285.107422	-32.479393
4306.640625	-32.532902
4328.173828	-31.702740
4349.707031	-28.684875
4371.240234	-25.340166
4392.773438	-23.287949
4414.306641	-20.769999
4435.839844	-19.819796
4457.373047	-22.770477
4478.906250	-26.262169
4500.439453	-28.712345
4521.972656	-30.405750
4543.505859	-31.365780
4565.039063	-31.820633
4586.572266	-32.035625
4608.105469	-31.908125
4629.638672	-31.648605
4651.171875	-31.742615
4672.705078	-31.701843
4694.238281	-31.389252
4715.771484	-30.129566
4737.304688	-28.453081
4758.837891	-25.979374
4780.371094	-24.415546
4801.904297	-24.342373
4823.437500	-25.912079
4844.970703	-26.476154
4866.503906	-27.328627
4888.037109	-28.457315
4909.570313	-29.667074
4931.103516	-30.594681
4952.636719	-30.721056
4974.169922	-30.784456
4995.703125	-30.792768
5017.236328	-31.191462
5038.769531	-30.718868
5060.302734	-28.515802
5081.835938	-26.676825
5103.369141	-25.189531
5124.902344	-22.461092
5146.435547	-20.097513
5167.968750	-19.686998
5189.501953	-21.311886
5211.035156	-24.201056
5232.568359	-26.599609
5254.101563	-27.224625
5275.634766	-28.263498
5297.167969	-28.931126
5318.701172	-28.998745
5340.234375	-28.354454
5361.767578	-27.949341
5383.300781	-28.032192
5404.833984	-27.015663
5426.367188	-24.877125
5447.900391	-22.698305
5469.433594	-19.678511
5490.966797	-16.671574
5512.500000	-15.932442
5534.033203	-15.632759
5555.566406	-16.612669
5577.099609	-19.855114
5598.632813	-23.140406
5620.166016	-25.126986
5641.699219	-26.560596
5663.232422	-27.936201
5684.765625	-28.158422
5706.298828	-27.993113
5727.832031	-28.181704
5749.365234	-27.913601
5770.898438	-28.140110
5792.431641	-27.508541
5813.964844	-25.846565
5835.498047	-23.719357
5857.031250	-22.176886
5878.564453	-21.102829
5900.097656	-20.717846
5921.630859	-22.400187
5943.164063	-24.941986
5964.697266	-26.863634
5986.230469	-28.243084
6007.763672	-28.726137
6029.296875	-29.669533
6050.830078	-30.054596
6072.363281	-30.038792
6093.896484	-30.075209
6115.429688	-29.882801
6136.962891	-29.764196
6158.496094	-28.325495
6180.029297	-27.197800
6201.562500	-26.243132
6223.095703	-24.845417
6244.628906	-24.387470
6266.162109	-23.737915
6287.695313	-22.635937
6309.228516	-24.449284
6330.761719	-26.372429
6352.294922	-27.847494
6373.828125	-28.469038
6395.361328	-29.351934
6416.894531	-29.726587
6438.427734	-29.353043
6459.960938	-29.355804
6481.494141	-28.781136
6503.027344	-29.123524
6524.560547	-28.910946
6546.093750	-28.121994
6567.626953	-26.154226
6589.160156	-24.607397
6610.693359	-23.823290
6632.226563	-22.903629
6653.759766	-23.799868
6675.292969	-26.089909
6696.826172	-27.740067
6718.359375	-28.390539
6739.892578	-28.889225
6761.425781	-29.261360
6782.958984	-29.863707
6804.492188	-30.167265
6826.025391	-30.421005
6847.558594	-30.601761
6869.091797	-29.976217
6890.625000	-29.658506
6912.158203	-28.662113
6933.691406	-26.482906
6955.224609	-24.714907
6976.757813	-24.128334
6998.291016	-24.769953
7019.824219	-24.921904
7041.357422	-25.668692
7062.890625	-27.316004
7084.423828	-28.244719
7105.957031	-28.945164
7127.490234	-28.988260
7149.023438	-29.652893
7170.556641	-30.325933
7192.089844	-30.185747
7213.623047	-29.671104
7235.156250	-28.762169
7256.689453	-28.377205
7278.222656	-27.994728
7299.755859	-26.655128
7321.289063	-25.133976
7342.822266	-24.899256
7364.355469	-24.969837
7385.888672	-24.251944
7407.421875	-25.313910
7428.955078	-27.230812
7450.488281	-27.895987
7472.021484	-27.765465
7493.554688	-28.319016
7515.087891	-29.383518
7536.621094	-29.838552
7558.154297	-30.090631
7579.687500	-29.443115
7601.220703	-28.662138
7622.753906	-28.570501
7644.287109	-27.542648
7665.820313	-25.372231
7687.353516	-23.793510
7708.886719	-23.746483
7730.419922	-23.611345
7751.953125	-23.609730
7773.486328	-24.081743
7795.019531	-26.227705
7816.552734	-27.474274
7838.085938	-28.843281
7859.619141	-29.854780
7881.152344	-30.817318
7902.685547	-31.253237
7924.218750	-31.407238
7945.751953	-30.960829
7967.285156	-30.377409
7988.818359	-29.313265
8010.351563	-28.674517
8031.884766	-27.004999
8053.417969	-26.554991
8074.951172	-26.324883
8096.484375	-25.367586
8118.017578	-25.113974
8139.550781	-26.065857
8161.083984	-26.868599
8182.617188	-27.993757
8204.150391	-29.181948
8225.683594	-29.608879
8247.216797	-30.202332
8268.750000	-30.384933
8290.283203	-29.839249
8311.816406	-29.560108
8333.349609	-29.281551
8354.882813	-28.973581
8376.416016	-28.452324
8397.949219	-27.538704
8419.482422	-26.672890
8441.015625	-25.871946
8462.548828	-25.580719
8484.082031	-25.074106
8505.615234	-25.456667
8527.148438	-26.935568
8548.681641	-27.667114
8570.214844	-27.696905
8591.748047	-28.440048
8613.281250	-28.962088
8634.814453	-29.489645
8656.347656	-30.026693
8677.880859	-29.784340
8699.414063	-28.889013
8720.947266	-28.266754
8742.480469	-27.893511
8764.013672	-26.508913
8785.546875	-25.597811
8807.080078	-26.235767
8828.613281	-26.470047
8850.146484	-25.873785
8871.679688	-26.057047
8893.212891	-26.984598
8914.746094	-28.861969
8936.279297	-29.741169
8957.812500	-29.911665
8979.345703	-30.138756
9000.878906	-30.912271
9022.412109	-30.303362
9043.945313	-29.798716
9065.478516	-30.235643
9087.011719	-30.095325
9108.544922	-29.539330
9130.078125	-29.059017
9151.611328	-28.825352
9173.144531	-28.304129
9194.677734	-27.526052
9216.210938	-27.630898
9237.744141	-27.724438
9259.277344	-28.358288
9280.810547	-28.646767
9302.343750	-28.610659
9323.876953	-29.203184
9345.410156	-29.285080
9366.943359	-29.127972
9388.476563	-29.308138
9410.009766	-29.073826
9431.542969	-29.892824
9453.076172	-30.350554
9474.609375	-29.575199
9496.142578	-29.219320
9517.675781	-28.987347
9539.208984	-28.543974
9560.742188	-27.882906
9582.275391	-27.383505
9603.808594	-27.687531
9625.341797	-28.117970
9646.875000	-28.939041
9668.408203	-28.780504
9689.941406	-29.414682
9711.474609	-28.879080
9733.007813	-28.863321
9754.541016	-28.562012
9776.074219	-28.654242
9797.607422	-28.678713
9819.140625	-28.511646
9840.673828	-28.357960
9862.207031	-28.058048
9883.740234	-28.252943
9905.273438	-27.760233
9926.806641	-28.187109
9948.339844	-28.488871
9969.873047	-28.340822
9991.406250	-28.385033
10012.939453	-28.975883
10034.472656	-29.446445
10056.005859	-30.190800
10077.539063	-30.725315
10099.072266	-30.149323
10120.605469	-30.426001
10142.138672	-30.865086
10163.671875	-30.813213
10185.205078	-30.944761
10206.738281	-31.096111
10228.271484	-30.502815
10249.804688	-30.369766
10271.337891	-30.296597
10292.871094	-30.638346
10314.404297	-30.571629
10335.937500	-30.994724
10357.470703	-31.524694
10379.003906	-31.081459
10400.537109	-30.571514
10422.070313	-30.644455
10443.603516	-30.553350
10465.136719	-30.342773
10486.669922	-30.241936
10508.203125	-30.308834
10529.736328	-30.453171
10551.269531	-30.612211
10572.802734	-30.715273
10594.335938	-30.345583
10615.869141	-29.969963
10637.402344	-30.377556
10658.935547	-30.248312
10680.468750	-30.046942
10702.001953	-29.997366
10723.535156	-30.470318
10745.068359	-30.184000
10766.601563	-29.884007
10788.134766	-30.010769
10809.667969	-29.896606
10831.201172	-29.722214
10852.734375	-29.947964
10874.267578	-29.893867
10895.800781	-30.044624
10917.333984	-30.158489
10938.867188	-30.043825
10960.400391	-30.249458
10981.933594	-30.100870
11003.466797	-29.282309
11025.000000	-29.704391
11046.533203	-29.943989
11068.066406	-29.675201
11089.599609	-29.878464
11111.132813	-29.968313
11132.666016	-29.834129
11154.199219	-29.354910
11175.732422	-29.661821
11197.265625	-29.948660
11218.798828	-30.324724
11240.332031	-30.694757
11261.865234	-30.269667
11283.398438	-29.757149
11304.931641	-30.392134
11326.464844	-30.343853
11347.998047	-29.749723
11369.531250	-30.189165
11391.064453	-29.837957
11412.597656	-29.590015
11434.130859	-29.538876
11455.664063	-29.046221
11477.197266	-28.655691
11498.730469	-28.844311
11520.263672	-28.169451
11541.796875	-27.594091
11563.330078	-27.918039
11584.863281	-28.177433
11606.396484	-28.476627
11627.929688	-28.901478
11649.462891	-28.789513
11670.996094	-28.491451
11692.529297	-28.372074
11714.062500	-29.151499
11735.595703	-29.324759
11757.128906	-29.355392
11778.662109	-29.645498
11800.195313	-29.440022
11821.728516	-29.540472
11843.261719	-29.747606
11864.794922	-29.731403
11886.328125	-29.853760
11907.861328	-30.003494
11929.394531	-29.487549
11950.927734	-29.547998
11972.460938	-29.480955
11993.994141	-29.240482
12015.527344	-29.414736
12037.060547	-28.979744
12058.593750	-29.076111
12080.126953	-29.415352
12101.660156	-29.144985
12123.193359	-28.975050
12144.726563	-28.737646
12166.259766	-29.043253
12187.792969	-28.656885
12209.326172	-28.846493
12230.859375	-28.631163
12252.392578	-28.694733
12273.925781	-29.236099
12295.458984	-29.075247
12316.992188	-29.094879
12338.525391	-29.618830
12360.058594	-29.536921
12381.591797	-29.622362
12403.125000	-29.066936
12424.658203	-28.991425
12446.191406	-29.310307
12467.724609	-28.938086
12489.257813	-28.674635
12510.791016	-28.485552
12532.324219	-27.913937
12553.857422	-27.350071
12575.390625	-27.337820
12596.923828	-27.937897
12618.457031	-27.968115
12639.990234	-28.041735
12661.523438	-28.086191
12683.056641	-27.766554
12704.589844	-27.998102
12726.123047	-28.264851
12747.656250	-27.676142
12769.189453	-27.460505
12790.722656	-27.178944
12812.255859	-26.884983
12833.789063	-26.805748
12855.322266	-27.106836
12876.855469	-26.650856
12898.388672	-26.690601
12919.921875	-26.983625
12941.455078	-27.423662
12962.988281	-27.857166
12984.521484	-27.723211
13006.054688	-28.090788
13027.587891	-28.251612
13049.121094	-27.708061
13070.654297	-28.167891
13092.187500	-27.827108
13113.720703	-27.266266
13135.253906	-27.504778
13156.787109	-27.636524
13178.320313	-27.173529
13199.853516	-26.781256
13221.386719	-27.227600
13242.919922	-27.738993
13264.453125	-27.871826
13285.986328	-27.339647
13307.519531	-27.354521
13329.052734	-28.041405
13350.585938	-28.005775
13372.119141	-27.849598
13393.652344	-28.495667
13415.185547	-28.261866
13436.718750	-28.179070
13458.251953	-27.888849
13479.785156	-28.009888
13501.318359	-28.421488
13522.851563	-28.787651
13544.384766	-29.166441
13565.917969	-29.232145
13587.451172	-28.968288
13608.984375	-28.892469
13630.517578	-28.964081
13652.050781	-28.721796
13673.583984	-28.129208
13695.117188	-28.009657
13716.650391	-28.353046
13738.183594	-28.757309
13759.716797	-28.491999
13781.250000	-28.417665
13802.783203	-28.503399
13824.316406	-28.721785
13845.849609	-29.601412
13867.382813	-29.730864
13888.916016	-29.847546
13910.449219	-30.352457
13931.982422	-30.070320
13953.515625	-29.791420
13975.048828	-29.597837
13996.582031	-28.893906
14018.115234	-29.295694
14039.648438	-29.218210
14061.181641	-28.955355
14082.714844	-29.565374
14104.248047	-29.181717
14125.781250	-28.599245
14147.314453	-29.230957
14168.847656	-29.177996
14190.380859	-29.047270
14211.914063	-28.893864
14233.447266	-28.958509
14254.980469	-28.771561
14276.513672	-28.437454
14298.046875	-28.861689
14319.580078	-29.111944
14341.113281	-29.971430
14362.646484	-30.480688
14384.179688	-30.400017
14405.712891	-30.142378
14427.246094	-29.960800
14448.779297	-30.191080
14470.312500	-30.271801
14491.845703	-30.191319
14513.378906	-29.699997
14534.912109	-29.777971
14556.445313	-29.852875
14577.978516	-29.916292
14599.511719	-29.628380
14621.044922	-29.494633
14642.578125	-30.322172
14664.111328	-31.040504
14685.644531	-31.588556
14707.177734	-31.452438
14728.710938	-31.521788
14750.244141	-31.563099
14771.777344	-31.274902
14793.310547	-30.733503
14814.843750	-29.998583
14836.376953	-29.730104
14857.910156	-29.954720
14879.443359	-30.294615
14900.976563	-30.140059
14922.509766	-29.765331
14944.042969	-29.795012
14965.576172	-30.213419
14987.109375	-30.297178
15008.642578	-29.948503
15030.175781	-30.443953
15051.708984	-29.855730
15073.242188	-29.546858
15094.775391	-29.518517
15116.308594	-29.694544
15137.841797	-30.546783
15159.375000	-30.558046
15180.908203	-30.660324
15202.441406	-30.678541
15223.974609	-31.010025
15245.507813	-31.089828
15267.041016	-31.714859
15288.574219	-31.594210
15310.107422	-30.453825
15331.640625	-30.117149
15353.173828	-30.285480
15374.707031	-30.376343
15396.240234	-30.736357
15417.773438	-30.945936
15439.306641	-31.346489
15460.839844	-30.892143
15482.373047	-30.792551
15503.906250	-31.519161
15525.439453	-31.720623
15546.972656	-32.175468
15568.505859	-31.613194
15590.039063	-31.470589
15611.572266	-31.915514
15633.105469	-31.833101
15654.638672	-31.807192
15676.171875	-32.062405
15697.705078	-31.669798
15719.238281	-31.981133
15740.771484	-31.946592
15762.304688	-31.932848
15783.837891	-31.351755
15805.371094	-30.682571
15826.904297	-30.787041
15848.437500	-30.653400
15869.970703	-30.199390
15891.503906	-29.479683
15913.037109	-29.851002
15934.570313	-30.107559
15956.103516	-30.224758
15977.636719	-29.980663
15999.169922	-30.437956
16020.703125	-30.385174
16042.236328	-29.717453
16063.769531	-29.949244
16085.302734	-30.546227
16106.835938	-30.453514
16128.369141	-30.607563
16149.902344	-30.252245
16171.435547	-30.202646
16192.968750	-29.547817
16214.501953	-29.543295
16236.035156	-29.634813
16257.568359	-29.886587
16279.101563	-29.681610
16300.634766	-29.540344
16322.167969	-29.902906
16343.701172	-30.347996
16365.234375	-29.985052
16386.767578	-30.093042
16408.300781	-29.713171
16429.833984	-30.182972
16451.367188	-30.698311
16472.900391	-31.268473
16494.433594	-31.140963
16515.966797	-30.870443
16537.500000	-30.667418
16559.033203	-30.771717
16580.566406	-30.957640
16602.099609	-30.615913
16623.632813	-30.519663
16645.166016	-30.326143
16666.699219	-29.998056
16688.232422	-30.166708
16709.765625	-29.900400
16731.298828	-29.890032
16752.832031	-29.938892
16774.365234	-29.479198
16795.898438	-29.480686
16817.431641	-29.812460
16838.964844	-29.490210
16860.498047	-29.259331
16882.031250	-29.581215
16903.564453	-29.624880
16925.097656	-29.369152
16946.630859	-29.046139
16968.164063	-29.180874
16989.697266	-29.272539
17011.230469	-28.747314
17032.763672	-29.320639
17054.296875	-30.072021
17075.830078	-30.282648
17097.363281	-29.896036
17118.896484	-29.569870
17140.429688	-30.158449
17161.962891	-30.368853
17183.496094	-30.990269
17205.029297	-31.121534
17226.562500	-31.032192
17248.095703	-31.524416
17269.628906	-31.711624
17291.162109	-31.816092
17312.695313	-32.054462
17334.228516	-32.229828
17355.761719	-32.087826
17377.294922	-31.755871
17398.828125	-31.895706
17420.361328	-32.041264
17441.894531	-32.129238
17463.427734	-31.935326
17484.960938	-31.606754
17506.494141	-31.258379
17528.027344	-31.122862
17549.560547	-31.279570
17571.093750	-31.217255
17592.626953	-31.384474
17614.160156	-31.393307
17635.693359	-31.004156
17657.226563	-31.181362
17678.759766	-31.760923
17700.292969	-32.109657
17721.826172	-31.826933
17743.359375	-31.687695
17764.892578	-31.896252
17786.425781	-31.841944
17807.958984	-32.053101
17829.492188	-31.924135
17851.025391	-31.686445
17872.558594	-31.159817
17894.091797	-31.169664
17915.625000	-31.316910
17937.158203	-30.792730
17958.691406	-30.784313
17980.224609	-30.561031
18001.757813	-30.521221
18023.291016	-30.424881
18044.824219	-30.602709
18066.357422	-31.101387
18087.890625	-31.174463
18109.423828	-30.998428
18130.957031	-30.939520
18152.490234	-31.330421
18174.023438	-31.341351
18195.556641	-32.051746
18217.089844	-32.161884
18238.623047	-32.599937
18260.156250	-32.989685
18281.689453	-33.105873
18303.222656	-33.202099
18324.755859	-33.525078
18346.289063	-33.350807
18367.822266	-33.320084
18389.355469	-32.936874
18410.888672	-33.170700
18432.421875	-33.552811
18453.955078	-32.573891
18475.488281	-32.564381
18497.021484	-32.464798
18518.554688	-32.230347
18540.087891	-31.995466
18561.621094	-32.140713
18583.154297	-32.408768
18604.687500	-32.042007
18626.220703	-32.436436
18647.753906	-32.258694
18669.287109	-31.943180
18690.820313	-31.827188
18712.353516	-32.081120
18733.886719	-32.242851
18755.419922	-32.253895
18776.953125	-32.278103
18798.486328	-32.372578
18820.019531	-32.488823
18841.552734	-32.010021
18863.085938	-31.908537
18884.619141	-32.137882
18906.152344	-32.100193
18927.685547	-31.715904
18949.218750	-31.593695
18970.751953	-31.823555
18992.285156	-31.725061
19013.818359	-31.566145
19035.351563	-31.844986
19056.884766	-31.664335
19078.417969	-31.779654
19099.951172	-31.933601
19121.484375	-31.673161
19143.017578	-31.659189
19164.550781	-31.944954
19186.083984	-31.632505
19207.617188	-31.626532
19229.150391	-31.629667
19250.683594	-31.984491
19272.216797	-31.695530
19293.750000	-31.708260
19315.283203	-31.682220
19336.816406	-31.480694
19358.349609	-31.296700
19379.882813	-31.799358
19401.416016	-32.309361
19422.949219	-32.411957
19444.482422	-32.379696
19466.015625	-32.258606
19487.548828	-32.572029
19509.082031	-33.359146
19530.615234	-33.734379
19552.148438	-33.329830
19573.681641	-32.934338
19595.214844	-33.220192
19616.748047	-33.650742
19638.281250	-33.994240
19659.814453	-33.932144
19681.347656	-33.970554
19702.880859	-34.013382
19724.414063	-33.841507
19745.947266	-33.475094
19767.480469	-33.221256
19789.013672	-33.424133
19810.546875	-33.684368
19832.080078	-33.519161
19853.613281	-32.930550
19875.146484	-32.788971
19896.679688	-33.158237
19918.212891	-33.055084
19939.746094	-32.679272
19961.279297	-32.770748
19982.812500	-33.139248
20004.345703	-33.658306
20025.878906	-33.118004
20047.412109	-32.906902
20068.945313	-33.145439
20090.478516	-33.123135
20112.011719	-33.518372
20133.544922	-33.430397
20155.078125	-32.970097
20176.611328	-33.486031
20198.144531	-34.126453
20219.677734	-34.477871
20241.210938	-34.784435
20262.744141	-34.394920
20284.277344	-34.597076
20305.810547	-34.520172
20327.343750	-34.176018
20348.876953	-34.096329
20370.410156	-34.653191
20391.943359	-34.825912
20413.476563	-34.568623
20435.009766	-33.807861
20456.542969	-33.837818
20478.076172	-33.733562
20499.609375	-33.693634
20521.142578	-33.843285
20542.675781	-33.591805
20564.208984	-34.195915
20585.742188	-34.743179
20607.275391	-35.137444
20628.808594	-35.016617
20650.341797	-35.240387
20671.875000	-35.481167
20693.408203	-35.900990
20714.941406	-36.239883
20736.474609	-37.136745
20758.007813	-37.697842
20779.541016	-37.954842
20801.074219	-38.171124
20822.607422	-38.245274
20844.140625	-38.484688
20865.673828	-38.567467
20887.207031	-39.019745
20908.740234	-39.535408
20930.273438	-39.060860
20951.806641	-38.688820
20973.339844	-38.903973
20994.873047	-38.893230
21016.406250	-38.825386
21037.939453	-39.064156
21059.472656	-39.691730
21081.005859	-39.725250
21102.539063	-40.309612
21124.072266	-40.640366
21145.605469	-41.194954
21167.138672	-41.456966
21188.671875	-41.604019
21210.205078	-42.038704
21231.738281	-42.914059
21253.271484	-42.919518
21274.804688	-42.399590
21296.337891	-43.158352
21317.871094	-44.150772
21339.404297	-43.939922
21360.937500	-44.200954
21382.470703	-44.731537
21404.003906	-44.657528
21425.537109	-44.765682
21447.070313	-44.642212
21468.603516	-44.568573
21490.136719	-44.713100
21511.669922	-44.503990
21533.203125	-45.007488
21554.736328	-45.370327
21576.269531	-45.396748
21597.802734	-45.568943
21619.335938	-46.157608
21640.869141	-46.480606
21662.402344	-46.796654
21683.935547	-47.079082
21705.468750	-47.128300
21727.001953	-47.768669
21748.535156	-47.995903
21770.068359	-48.923378
21791.601563	-49.399414
21813.134766	-49.410885
21834.667969	-49.763344
21856.201172	-50.511177
21877.734375	-50.594566
21899.267578	-50.733356
21920.800781	-51.142204
21942.333984	-51.266743
21963.867188	-51.307293
21985.400391	-51.555607
22006.933594	-51.564190
22028.466797	-51.534081
